# ngc_1068_drift_180_155.txt
# RA = 40.65704 [degree, J2000]
# DEC = -0.03851 [degree, J2000]
# APERTURE = 155 x 180 [sq. arcsec]
# POSANGLE = 90 [degree, N-->E]
# 
# 1 Wavelength [Angstrom]
# 2 Spectrum   [erg/s/cm2/A]
# 3 Error      [erg/s/cm2/A]
# 4 Sky        [erg/s/cm2/A]
# 
  3678.49    3.42007E-13    2.25560E-14    3.06946E-13
  3681.24    3.73288E-13    2.23440E-14    2.66681E-13
  3683.99    4.01117E-13    2.19164E-14    2.34268E-13
  3686.74    3.76469E-13    2.15337E-14    2.42416E-13
  3689.49    3.46224E-13    2.14585E-14    2.67084E-13
  3692.24    3.52564E-13    2.16527E-14    2.63645E-13
  3694.99    3.72065E-13    2.16486E-14    2.69184E-13
  3697.74    3.21841E-13    2.15712E-14    3.15991E-13
  3700.49    3.36507E-13    2.16436E-14    3.44352E-13
  3703.24    3.51490E-13    2.22209E-14    3.66034E-13
  3705.99    3.39462E-13    2.22698E-14    3.96439E-13
  3708.74    3.41929E-13    2.22515E-14    3.98694E-13
  3711.49    3.64589E-13    2.18452E-14    3.56601E-13
  3714.24    3.80878E-13    2.16951E-14    3.32259E-13
  3716.99    3.70709E-13    2.12215E-14    3.20310E-13
  3719.74    3.55632E-13    2.05032E-14    2.95195E-13
  3722.49    3.43919E-13    1.99600E-14    2.91401E-13
  3725.24    3.45430E-13    2.01073E-14    2.96937E-13
  3727.99    3.60588E-13    2.03189E-14    3.05644E-13
  3730.74    3.99780E-13    2.07972E-14    3.27124E-13
  3733.49    4.30732E-13    2.14794E-14    3.54714E-13
  3736.24    4.59450E-13    2.18903E-14    3.94332E-13
  3738.99    5.67210E-13    2.29691E-14    4.33648E-13
  3741.74    6.83794E-13    2.40527E-14    4.51776E-13
  3744.49    7.31280E-13    2.45013E-14    4.82131E-13
  3747.24    6.70767E-13    2.35216E-14    4.50325E-13
  3749.99    5.51192E-13    2.17968E-14    3.92806E-13
  3752.74    4.51622E-13    2.04064E-14    3.56712E-13
  3755.49    3.96700E-13    1.98369E-14    3.38888E-13
  3758.24    3.82481E-13    1.95168E-14    3.33989E-13
  3760.99    3.72611E-13    1.90090E-14    3.08951E-13
  3763.74    3.64151E-13    1.86664E-14    2.94091E-13
  3766.49    3.62555E-13    1.82915E-14    2.70673E-13
  3769.24    3.70931E-13    1.82655E-14    2.67866E-13
  3771.99    3.88375E-13    1.84083E-14    2.79986E-13
  3774.74    3.99818E-13    1.86060E-14    2.94397E-13
  3777.49    4.11736E-13    1.86243E-14    3.01320E-13
  3780.24    4.00832E-13    1.84490E-14    3.00506E-13
  3782.99    3.92131E-13    1.83478E-14    2.91187E-13
  3785.74    3.91133E-13    1.81602E-14    2.78869E-13
  3788.49    3.72814E-13    1.78396E-14    2.98912E-13
  3791.24    3.80677E-13    1.79861E-14    3.04054E-13
  3793.99    4.30226E-13    1.83270E-14    2.92484E-13
  3796.74    4.35818E-13    1.83289E-14    2.98187E-13
  3799.49    4.54260E-13    1.82597E-14    2.90237E-13
  3802.24    4.58641E-13    1.79890E-14    2.72643E-13
  3804.99    4.48883E-13    1.78034E-14    2.70114E-13
  3807.74    4.21560E-13    1.73914E-14    2.67119E-13
  3810.49    3.87265E-13    1.70100E-14    2.66822E-13
  3813.24    3.76484E-13    1.69550E-14    2.78438E-13
  3815.99    3.93298E-13    1.72539E-14    2.82848E-13
  3818.74    3.96288E-13    1.73545E-14    3.05153E-13
  3821.49    4.00418E-13    1.74836E-14    3.15399E-13
  3824.24    4.55321E-13    1.77956E-14    2.95427E-13
  3826.99    4.69853E-13    1.78904E-14    2.99962E-13
  3829.74    4.81692E-13    1.80977E-14    3.28045E-13
  3832.49    4.77141E-13    1.82519E-14    3.65472E-13
  3835.24    4.35883E-13    1.79772E-14    3.91314E-13
  3837.99    4.38195E-13    1.78110E-14    3.75825E-13
  3840.74    4.27279E-13    1.71915E-14    3.40390E-13
  3843.49    3.88259E-13    1.69902E-14    3.32003E-13
  3846.24    3.55893E-13    1.64681E-14    3.35231E-13
  3848.99    3.53367E-13    1.61460E-14    3.12877E-13
  3851.74    3.45190E-13    1.58185E-14    2.83689E-13
  3854.49    3.43147E-13    1.54884E-14    2.77691E-13
  3857.24    3.72068E-13    1.56157E-14    2.59188E-13
  3859.99    4.02649E-13    1.57996E-14    2.43760E-13
  3862.74    4.44739E-13    1.58148E-14    2.38018E-13
  3865.49    4.75166E-13    1.59646E-14    2.38499E-13
  3868.24    4.77759E-13    1.62668E-14    2.52155E-13
  3870.99    4.95630E-13    1.60979E-14    2.43397E-13
  3873.74    5.30304E-13    1.60772E-14    2.20597E-13
  3876.49    5.43989E-13    1.62178E-14    2.27292E-13
  3879.24    5.55051E-13    1.63851E-14    2.40466E-13
  3881.99    6.24885E-13    1.66123E-14    2.15150E-13
  3884.74    6.36673E-13    1.67087E-14    2.09440E-13
  3887.49    6.22173E-13    1.64390E-14    2.16270E-13
  3890.24    5.82739E-13    1.60702E-14    2.07298E-13
  3892.99    5.47539E-13    1.55548E-14    2.02588E-13
  3895.74    5.02259E-13    1.53632E-14    2.14878E-13
  3898.49    4.66435E-13    1.50327E-14    2.29403E-13
  3901.24    4.50411E-13    1.49588E-14    2.39692E-13
  3903.99    4.20901E-13    1.48003E-14    2.58908E-13
  3906.74    4.27280E-13    1.50419E-14    2.83731E-13
  3909.49    4.30143E-13    1.54364E-14    3.19393E-13
  3912.24    4.43395E-13    1.55965E-14    3.39396E-13
  3914.99    4.62872E-13    1.56664E-14    3.29618E-13
  3917.74    4.70156E-13    1.55204E-14    3.16407E-13
  3920.49    4.87310E-13    1.53573E-14    2.89605E-13
  3923.24    5.16574E-13    1.51986E-14    2.53695E-13
  3925.99    5.11348E-13    1.49623E-14    2.45000E-13
  3928.74    5.22914E-13    1.49643E-14    2.36044E-13
  3931.49    5.29702E-13    1.48147E-14    2.12791E-13
  3934.24    5.13343E-13    1.45168E-14    2.10051E-13
  3936.99    4.96445E-13    1.43142E-14    2.13667E-13
  3939.74    4.95438E-13    1.43632E-14    2.20957E-13
  3942.49    4.52096E-13    1.42831E-14    2.58136E-13
  3945.24    4.40801E-13    1.41662E-14    2.68261E-13
  3947.99    3.99681E-13    1.38412E-14    2.63980E-13
  3950.74    3.60255E-13    1.34128E-14    2.64912E-13
  3953.49    3.67240E-13    1.34210E-14    2.61741E-13
  3956.24    4.00832E-13    1.35482E-14    2.50633E-13
  3958.99    4.37581E-13    1.37117E-14    2.41295E-13
  3961.74    4.57170E-13    1.37748E-14    2.37865E-13
  3964.49    4.74173E-13    1.37040E-14    2.28129E-13
  3967.24    4.98851E-13    1.36071E-14    2.04414E-13
  3969.99    5.17428E-13    1.35777E-14    1.85527E-13
  3972.74    5.11114E-13    1.35722E-14    1.89474E-13
  3975.49    5.03808E-13    1.36211E-14    2.04229E-13
  3978.24    4.86025E-13    1.37509E-14    2.27675E-13
  3980.99    4.48921E-13    1.36603E-14    2.43871E-13
  3983.74    4.18828E-13    1.35614E-14    2.41690E-13
  3986.49    3.85218E-13    1.32586E-14    2.49933E-13
  3989.24    3.92147E-13    1.30282E-14    2.44074E-13
  3991.99    4.35288E-13    1.32127E-14    2.28567E-13
  3994.74    4.61935E-13    1.36060E-14    2.40935E-13
  3997.49    4.91481E-13    1.38163E-14    2.40871E-13
  4000.24    5.25063E-13    1.40029E-14    2.47796E-13
  4002.99    5.43088E-13    1.41297E-14    2.49916E-13
  4005.74    5.59692E-13    1.44515E-14    2.65533E-13
  4008.49    5.86017E-13    1.47271E-14    2.68624E-13
  4011.24    5.97185E-13    1.49921E-14    2.88864E-13
  4013.99    5.95763E-13    1.51579E-14    3.15267E-13
  4016.74    6.09697E-13    1.51869E-14    3.06776E-13
  4019.49    6.12445E-13    1.51013E-14    3.05241E-13
  4022.24    6.05536E-13    1.50337E-14    3.00394E-13
  4024.99    6.10092E-13    1.50920E-14    2.96810E-13
  4027.74    6.28384E-13    1.51142E-14    2.86662E-13
  4030.49    6.35423E-13    1.51795E-14    2.82733E-13
  4033.24    6.31877E-13    1.52036E-14    2.88359E-13
  4035.99    6.60083E-13    1.51519E-14    2.68118E-13
  4038.74    6.49454E-13    1.51766E-14    2.85620E-13
  4041.49    6.53711E-13    1.52820E-14    2.98648E-13
  4044.24    6.40443E-13    1.53871E-14    3.28380E-13
  4046.99    6.29665E-13    1.56239E-14    3.57430E-13
  4049.74    6.13926E-13    1.55373E-14    3.74624E-13
  4052.49    6.21331E-13    1.54096E-14    3.54374E-13
  4055.24    6.38485E-13    1.52636E-14    3.23511E-13
  4057.99    6.35292E-13    1.50150E-14    3.04222E-13
  4060.74    6.28785E-13    1.49806E-14    3.06556E-13
  4063.49    6.18906E-13    1.50030E-14    3.20845E-13
  4066.24    6.19917E-13    1.50328E-14    3.30450E-13
  4068.99    6.29160E-13    1.50134E-14    3.31780E-13
  4071.74    6.16869E-13    1.48603E-14    3.34379E-13
  4074.49    6.09069E-13    1.46986E-14    3.24277E-13
  4077.24    6.00594E-13    1.45377E-14    3.25644E-13
  4079.99    5.88264E-13    1.43821E-14    3.23002E-13
  4082.74    6.02760E-13    1.43246E-14    3.07787E-13
  4085.49    6.02471E-13    1.42063E-14    3.00746E-13
  4088.24    6.16305E-13    1.40404E-14    2.79902E-13
  4090.99    5.95160E-13    1.38857E-14    2.84304E-13
  4093.74    5.91504E-13    1.36773E-14    2.69666E-13
  4096.49    5.88287E-13    1.35503E-14    2.57418E-13
  4099.24    5.83765E-13    1.34324E-14    2.48806E-13
  4101.99    5.75615E-13    1.32949E-14    2.52249E-13
  4104.74    5.72416E-13    1.31224E-14    2.41472E-13
  4107.49    5.73016E-13    1.30091E-14    2.30933E-13
  4110.24    5.56603E-13    1.29365E-14    2.36500E-13
  4112.99    5.26859E-13    1.27057E-14    2.41211E-13
  4115.74    4.98140E-13    1.24873E-14    2.46929E-13
  4118.49    5.04423E-13    1.24147E-14    2.29325E-13
  4121.24    4.99203E-13    1.24465E-14    2.34222E-13
  4123.99    5.07560E-13    1.24889E-14    2.42962E-13
  4126.74    5.08236E-13    1.25387E-14    2.60510E-13
  4129.49    5.34337E-13    1.27208E-14    2.56960E-13
  4132.24    5.44872E-13    1.28004E-14    2.63910E-13
  4134.99    5.45245E-13    1.29075E-14    2.73912E-13
  4137.74    5.67470E-13    1.29299E-14    2.63112E-13
  4140.49    5.64059E-13    1.27779E-14    2.67065E-13
  4143.24    5.54729E-13    1.26575E-14    2.66918E-13
  4145.99    5.54628E-13    1.25334E-14    2.49218E-13
  4148.74    5.57854E-13    1.25322E-14    2.39366E-13
  4151.49    5.57256E-13    1.26141E-14    2.45031E-13
  4154.24    5.78504E-13    1.26984E-14    2.45819E-13
  4156.99    5.98164E-13    1.28387E-14    2.56203E-13
  4159.74    5.88241E-13    1.28959E-14    2.76397E-13
  4162.49    5.90664E-13    1.30123E-14    2.86550E-13
  4165.24    5.80677E-13    1.31470E-14    3.05076E-13
  4167.99    5.72397E-13    1.32733E-14    3.25294E-13
  4170.74    5.54278E-13    1.33014E-14    3.46553E-13
  4173.49    5.73231E-13    1.33213E-14    3.31176E-13
  4176.24    5.80728E-13    1.32201E-14    3.17744E-13
  4178.99    5.94323E-13    1.31295E-14    3.02154E-13
  4181.74    5.93824E-13    1.31261E-14    2.99816E-13
  4184.49    5.83748E-13    1.29957E-14    2.92784E-13
  4187.24    5.94868E-13    1.28445E-14    2.67350E-13
  4189.99    5.89441E-13    1.27836E-14    2.60667E-13
  4192.74    5.87179E-13    1.26530E-14    2.53409E-13
  4195.49    5.83485E-13    1.25829E-14    2.51524E-13
  4198.24    5.97360E-13    1.26260E-14    2.44086E-13
  4200.99    6.02615E-13    1.26083E-14    2.38418E-13
  4203.74    5.95384E-13    1.25663E-14    2.39382E-13
  4206.49    6.14608E-13    1.26549E-14    2.34557E-13
  4209.24    6.12460E-13    1.28052E-14    2.45799E-13
  4211.99    6.07694E-13    1.27556E-14    2.54748E-13
  4214.74    6.14015E-13    1.26470E-14    2.46202E-13
  4217.49    6.05264E-13    1.25675E-14    2.39147E-13
  4220.24    6.02307E-13    1.24284E-14    2.31721E-13
  4222.99    6.17768E-13    1.25071E-14    2.28337E-13
  4225.74    6.18368E-13    1.24993E-14    2.29696E-13
  4228.49    6.27693E-13    1.25234E-14    2.28100E-13
  4231.24    6.37298E-13    1.24868E-14    2.23007E-13
  4233.99    6.35156E-13    1.24815E-14    2.23678E-13
  4236.74    6.24934E-13    1.24320E-14    2.28553E-13
  4239.49    6.26424E-13    1.23583E-14    2.26547E-13
  4242.24    6.23333E-13    1.22005E-14    2.18923E-13
  4244.99    5.99300E-13    1.20935E-14    2.26883E-13
  4247.74    5.91629E-13    1.21523E-14    2.43700E-13
  4250.49    6.07913E-13    1.21986E-14    2.45948E-13
  4253.24    6.20827E-13    1.22422E-14    2.45921E-13
  4255.99    6.15330E-13    1.21938E-14    2.45408E-13
  4258.74    6.23392E-13    1.21868E-14    2.45080E-13
  4261.49    6.26705E-13    1.21978E-14    2.47389E-13
  4264.24    6.19605E-13    1.21298E-14    2.47851E-13
  4266.99    6.13939E-13    1.20927E-14    2.45433E-13
  4269.74    6.12162E-13    1.19523E-14    2.37872E-13
  4272.49    6.21019E-13    1.19378E-14    2.31957E-13
  4275.24    6.13493E-13    1.18794E-14    2.35081E-13
  4277.99    6.10590E-13    1.18042E-14    2.31735E-13
  4280.74    6.15903E-13    1.17356E-14    2.27126E-13
  4283.49    6.19229E-13    1.16756E-14    2.28862E-13
  4286.24    5.98616E-13    1.16653E-14    2.36188E-13
  4288.99    5.78916E-13    1.14840E-14    2.34982E-13
  4291.74    5.83030E-13    1.13356E-14    2.18481E-13
  4294.49    5.93305E-13    1.13157E-14    2.16293E-13
  4297.24    5.90473E-13    1.14068E-14    2.23942E-13
  4299.99    5.95057E-13    1.13115E-14    2.21715E-13
  4302.74    5.91959E-13    1.11870E-14    2.10016E-13
  4305.49    5.83509E-13    1.11008E-14    2.05219E-13
  4308.24    5.74980E-13    1.10255E-14    2.07296E-13
  4310.99    5.69952E-13    1.09629E-14    2.05347E-13
  4313.74    5.59278E-13    1.10157E-14    2.22841E-13
  4316.49    5.34316E-13    1.09928E-14    2.42615E-13
  4319.24    5.27644E-13    1.08669E-14    2.40743E-13
  4321.99    5.17447E-13    1.08076E-14    2.36624E-13
  4324.74    5.13293E-13    1.06839E-14    2.29800E-13
  4327.49    5.13825E-13    1.05740E-14    2.23489E-13
  4330.24    5.36522E-13    1.06220E-14    2.17939E-13
  4332.99    5.65693E-13    1.07625E-14    2.21315E-13
  4335.74    5.84693E-13    1.10202E-14    2.30046E-13
  4338.49    6.05895E-13    1.10747E-14    2.22656E-13
  4341.24    5.96589E-13    1.10058E-14    2.14087E-13
  4343.99    5.78365E-13    1.09488E-14    2.16426E-13
  4346.74    5.90427E-13    1.08950E-14    2.15777E-13
  4349.49    5.88195E-13    1.08482E-14    2.26888E-13
  4352.24    5.94747E-13    1.09271E-14    2.36064E-13
  4354.99    5.99281E-13    1.10685E-14    2.45772E-13
  4357.74    6.04013E-13    1.13494E-14    2.79708E-13
  4360.49    6.06018E-13    1.14873E-14    3.16052E-13
  4363.24    6.19440E-13    1.15035E-14    3.12476E-13
  4365.99    5.99921E-13    1.12157E-14    2.82854E-13
  4368.74    5.86976E-13    1.09601E-14    2.55832E-13
  4371.49    5.81518E-13    1.08587E-14    2.45878E-13
  4374.24    6.01310E-13    1.09171E-14    2.37344E-13
  4376.99    6.28416E-13    1.10057E-14    2.31081E-13
  4379.74    6.46553E-13    1.11966E-14    2.39562E-13
  4382.49    6.62793E-13    1.12453E-14    2.35677E-13
  4385.24    6.58369E-13    1.12089E-14    2.28878E-13
  4387.99    6.46538E-13    1.11020E-14    2.26496E-13
  4390.74    6.30346E-13    1.09479E-14    2.26666E-13
  4393.49    6.20610E-13    1.09405E-14    2.28542E-13
  4396.24    6.21669E-13    1.10237E-14    2.29522E-13
  4398.99    6.11016E-13    1.09683E-14    2.34437E-13
  4401.74    6.03237E-13    1.09180E-14    2.38878E-13
  4404.49    6.00875E-13    1.09572E-14    2.44697E-13
  4407.24    5.86962E-13    1.10202E-14    2.74480E-13
  4409.99    6.00939E-13    1.12226E-14    2.90194E-13
  4412.74    6.20614E-13    1.12733E-14    2.89088E-13
  4415.49    6.23389E-13    1.13972E-14    2.96009E-13
  4418.24    6.37075E-13    1.14990E-14    2.96615E-13
  4420.99    6.35779E-13    1.14144E-14    2.88533E-13
  4423.74    6.29979E-13    1.14035E-14    2.94524E-13
  4426.49    6.34742E-13    1.14630E-14    2.92556E-13
  4429.24    6.51420E-13    1.15564E-14    2.77714E-13
  4431.99    6.58180E-13    1.16270E-14    2.76900E-13
  4434.74    6.37137E-13    1.15599E-14    2.81079E-13
  4437.49    6.34955E-13    1.15963E-14    2.82577E-13
  4440.24    6.53155E-13    1.14008E-14    2.71292E-13
  4442.99    6.66844E-13    1.13892E-14    2.60968E-13
  4445.74    6.58866E-13    1.14750E-14    2.69100E-13
  4448.49    6.60420E-13    1.13473E-14    2.57531E-13
  4451.24    6.54412E-13    1.12123E-14    2.51202E-13
  4453.99    6.48425E-13    1.11667E-14    2.47849E-13
  4456.74    6.46980E-13    1.11523E-14    2.40323E-13
  4459.49    6.58153E-13    1.12236E-14    2.35996E-13
  4462.24    6.50847E-13    1.11601E-14    2.38689E-13
  4464.99    6.49185E-13    1.10992E-14    2.39729E-13
  4467.74    6.64722E-13    1.11853E-14    2.36754E-13
  4470.49    6.59657E-13    1.11971E-14    2.38096E-13
  4473.24    6.50177E-13    1.10334E-14    2.35116E-13
  4475.99    6.28127E-13    1.10124E-14    2.40074E-13
  4478.74    6.34334E-13    1.09769E-14    2.33478E-13
  4481.49    6.26591E-13    1.08795E-14    2.33385E-13
  4484.24    6.28391E-13    1.09403E-14    2.38327E-13
  4486.99    6.45331E-13    1.09851E-14    2.41604E-13
  4489.74    6.51878E-13    1.10355E-14    2.43754E-13
  4492.49    6.68738E-13    1.10590E-14    2.40534E-13
  4495.24    6.73376E-13    1.10692E-14    2.39943E-13
  4497.99    6.68612E-13    1.11081E-14    2.46784E-13
  4500.74    6.56218E-13    1.11036E-14    2.52111E-13
  4503.49    6.64294E-13    1.11253E-14    2.43955E-13
  4506.24    6.64705E-13    1.11987E-14    2.50660E-13
  4508.99    6.60590E-13    1.10951E-14    2.56730E-13
  4511.74    6.55657E-13    1.10730E-14    2.54854E-13
  4514.49    6.55750E-13    1.09969E-14    2.52077E-13
  4517.24    6.67452E-13    1.10462E-14    2.51450E-13
  4519.99    6.78819E-13    1.11455E-14    2.52982E-13
  4522.74    6.96673E-13    1.11960E-14    2.47968E-13
  4525.49    7.00087E-13    1.12113E-14    2.56923E-13
  4528.24    7.05266E-13    1.12340E-14    2.59424E-13
  4530.99    6.97767E-13    1.12064E-14    2.64228E-13
  4533.74    6.93973E-13    1.11710E-14    2.68710E-13
  4536.49    6.79880E-13    1.11699E-14    2.80237E-13
  4539.24    6.77955E-13    1.12682E-14    2.81687E-13
  4541.99    6.70832E-13    1.11158E-14    2.76845E-13
  4544.74    6.54110E-13    1.10998E-14    2.78442E-13
  4547.49    6.47762E-13    1.09646E-14    2.77340E-13
  4550.24    6.31710E-13    1.08259E-14    2.72599E-13
  4552.99    6.35476E-13    1.08196E-14    2.67773E-13
  4555.74    6.50016E-13    1.08933E-14    2.63921E-13
  4558.49    6.60055E-13    1.09581E-14    2.63209E-13
  4561.24    6.64390E-13    1.09126E-14    2.61387E-13
  4563.99    6.62243E-13    1.08780E-14    2.61580E-13
  4566.74    6.59653E-13    1.08655E-14    2.52892E-13
  4569.49    6.39503E-13    1.07372E-14    2.60121E-13
  4572.24    6.42968E-13    1.07320E-14    2.57906E-13
  4574.99    6.48611E-13    1.07594E-14    2.57808E-13
  4577.74    6.74549E-13    1.08607E-14    2.52868E-13
  4580.49    6.80125E-13    1.09336E-14    2.65824E-13
  4583.24    6.92606E-13    1.09502E-14    2.55322E-13
  4585.99    6.76031E-13    1.09319E-14    2.67041E-13
  4588.74    6.84248E-13    1.09248E-14    2.62522E-13
  4591.49    6.92268E-13    1.09407E-14    2.55093E-13
  4594.24    6.91140E-13    1.08747E-14    2.50261E-13
  4596.99    6.79743E-13    1.07972E-14    2.53198E-13
  4599.74    6.76048E-13    1.07416E-14    2.47557E-13
  4602.49    6.69165E-13    1.07080E-14    2.45278E-13
  4605.24    6.60773E-13    1.07219E-14    2.48093E-13
  4607.99    6.68151E-13    1.07205E-14    2.46813E-13
  4610.74    6.81165E-13    1.07548E-14    2.47203E-13
  4613.49    6.72632E-13    1.07467E-14    2.47448E-13
  4616.24    6.78831E-13    1.07322E-14    2.46628E-13
  4618.99    6.81963E-13    1.06878E-14    2.43412E-13
  4621.74    6.76939E-13    1.06644E-14    2.45571E-13
  4624.49    6.95458E-13    1.07012E-14    2.40416E-13
  4627.24    6.95243E-13    1.07250E-14    2.43676E-13
  4629.99    6.95884E-13    1.07810E-14    2.49714E-13
  4632.74    6.97251E-13    1.08233E-14    2.54704E-13
  4635.49    7.13559E-13    1.07750E-14    2.38484E-13
  4638.24    7.08365E-13    1.07286E-14    2.39111E-13
  4640.99    7.17964E-13    1.07193E-14    2.33632E-13
  4643.74    7.00633E-13    1.07159E-14    2.44687E-13
  4646.49    7.00531E-13    1.07004E-14    2.45842E-13
  4649.24    7.12053E-13    1.06584E-14    2.31043E-13
  4651.99    7.10962E-13    1.06282E-14    2.30834E-13
  4654.74    7.01971E-13    1.06124E-14    2.36017E-13
  4657.49    6.93942E-13    1.06023E-14    2.43874E-13
  4660.24    6.81082E-13    1.05561E-14    2.57087E-13
  4662.99    6.79225E-13    1.05788E-14    2.64233E-13
  4665.74    6.67770E-13    1.05724E-14    2.71427E-13
  4668.49    6.73573E-13    1.06362E-14    2.59929E-13
  4671.24    6.71456E-13    1.06876E-14    2.61092E-13
  4673.99    6.78194E-13    1.07763E-14    2.65104E-13
  4676.74    6.86909E-13    1.08073E-14    2.70194E-13
  4679.49    6.87521E-13    1.06582E-14    2.72412E-13
  4682.24    6.82890E-13    1.05735E-14    2.70510E-13
  4684.99    6.72086E-13    1.04884E-14    2.61535E-13
  4687.74    6.58753E-13    1.03785E-14    2.60369E-13
  4690.49    6.59008E-13    1.03153E-14    2.56733E-13
  4693.24    6.76804E-13    1.04164E-14    2.51310E-13
  4695.99    6.93682E-13    1.05312E-14    2.50284E-13
  4698.74    7.08896E-13    1.05359E-14    2.45285E-13
  4701.49    7.19247E-13    1.05391E-14    2.43434E-13
  4704.24    7.29510E-13    1.06115E-14    2.42653E-13
  4706.99    7.39271E-13    1.06546E-14    2.39996E-13
  4709.74    7.31286E-13    1.06280E-14    2.41337E-13
  4712.49    7.11917E-13    1.05639E-14    2.47489E-13
  4715.24    6.96065E-13    1.05089E-14    2.51504E-13
  4717.99    6.85434E-13    1.04633E-14    2.53832E-13
  4720.74    6.73757E-13    1.04405E-14    2.55653E-13
  4723.49    6.72898E-13    1.04546E-14    2.52069E-13
  4726.24    6.74033E-13    1.04693E-14    2.51111E-13
  4728.99    6.81503E-13    1.04698E-14    2.45608E-13
  4731.74    6.84054E-13    1.04624E-14    2.46199E-13
  4734.49    6.86928E-13    1.05033E-14    2.48426E-13
  4737.24    7.08021E-13    1.06174E-14    2.43945E-13
  4739.99    7.21451E-13    1.06751E-14    2.44933E-13
  4742.74    7.23326E-13    1.07107E-14    2.52130E-13
  4745.49    7.23153E-13    1.07017E-14    2.50413E-13
  4748.24    7.07218E-13    1.06482E-14    2.51974E-13
  4750.99    6.99461E-13    1.06304E-14    2.51911E-13
  4753.74    6.99400E-13    1.05995E-14    2.47222E-13
  4756.49    7.02352E-13    1.06681E-14    2.52039E-13
  4759.24    7.09937E-13    1.06865E-14    2.49113E-13
  4761.99    7.17072E-13    1.07000E-14    2.45555E-13
  4764.74    7.25889E-13    1.06969E-14    2.41214E-13
  4767.49    7.29064E-13    1.06590E-14    2.40707E-13
  4770.24    7.22804E-13    1.05962E-14    2.40894E-13
  4772.99    7.17310E-13    1.05503E-14    2.40267E-13
  4775.74    7.10202E-13    1.05190E-14    2.40748E-13
  4778.49    7.01678E-13    1.04792E-14    2.42671E-13
  4781.24    6.97261E-13    1.04544E-14    2.42359E-13
  4783.99    6.93211E-13    1.04284E-14    2.41479E-13
  4786.74    6.88121E-13    1.03917E-14    2.40865E-13
  4789.49    6.87478E-13    1.03951E-14    2.40619E-13
  4792.24    7.01041E-13    1.04092E-14    2.36637E-13
  4794.99    6.99774E-13    1.04532E-14    2.42061E-13
  4797.74    6.97104E-13    1.04690E-14    2.50544E-13
  4800.49    7.01875E-13    1.04369E-14    2.46455E-13
  4803.24    6.97460E-13    1.04280E-14    2.45861E-13
  4805.99    6.91197E-13    1.03632E-14    2.47109E-13
  4808.74    6.90131E-13    1.02608E-14    2.43524E-13
  4811.49    6.87429E-13    1.02220E-14    2.46987E-13
  4814.24    6.91313E-13    1.02089E-14    2.49974E-13
  4816.99    6.93150E-13    1.02206E-14    2.55042E-13
  4819.74    6.98261E-13    1.02573E-14    2.58893E-13
  4822.49    6.95052E-13    1.02658E-14    2.68549E-13
  4825.24    6.87707E-13    1.02684E-14    2.75485E-13
  4827.99    6.76747E-13    1.02943E-14    2.81459E-13
  4830.74    6.72783E-13    1.02521E-14    2.79806E-13
  4833.49    6.80426E-13    1.02250E-14    2.72285E-13
  4836.24    6.78750E-13    1.02114E-14    2.78873E-13
  4838.99    6.84387E-13    1.02474E-14    2.81851E-13
  4841.74    6.87632E-13    1.02541E-14    2.76972E-13
  4844.49    6.79940E-13    1.01421E-14    2.68718E-13
  4847.24    6.73970E-13    1.00384E-14    2.65521E-13
  4849.99    6.65304E-13    9.97194E-15    2.61935E-13
  4852.74    6.64467E-13    9.94946E-15    2.52710E-13
  4855.49    6.58856E-13    9.90378E-15    2.49525E-13
  4858.24    6.56905E-13    9.80354E-15    2.42292E-13
  4860.99    6.58034E-13    9.69505E-15    2.29121E-13
  4863.74    6.68710E-13    9.67038E-15    2.18854E-13
  4866.49    6.60245E-13    9.66424E-15    2.24917E-13
  4869.24    6.67842E-13    9.75893E-15    2.29292E-13
  4871.99    6.76768E-13    9.76397E-15    2.25712E-13
  4874.74    6.87090E-13    9.85864E-15    2.30177E-13
  4877.49    7.16821E-13    1.00121E-14    2.32235E-13
  4880.24    7.92867E-13    1.03229E-14    2.34587E-13
  4882.99    8.41386E-13    1.06184E-14    2.45811E-13
  4885.74    8.04909E-13    1.04994E-14    2.50359E-13
  4888.49    7.24434E-13    1.01178E-14    2.46812E-13
  4891.24    6.61005E-13    9.85751E-15    2.49198E-13
  4893.99    6.35437E-13    9.74462E-15    2.53769E-13
  4896.74    6.31106E-13    9.75842E-15    2.51255E-13
  4899.49    6.38273E-13    9.70038E-15    2.44008E-13
  4902.24    6.47442E-13    9.69959E-15    2.40871E-13
  4904.99    6.46598E-13    9.67845E-15    2.40494E-13
  4907.74    6.38811E-13    9.65692E-15    2.39193E-13
  4910.49    6.47536E-13    9.67225E-15    2.35324E-13
  4913.24    6.51568E-13    9.71865E-15    2.37602E-13
  4915.99    6.66579E-13    9.80054E-15    2.37927E-13
  4918.74    6.79627E-13    9.86910E-15    2.39537E-13
  4921.49    6.85478E-13    9.84824E-15    2.35412E-13
  4924.24    6.89185E-13    9.88610E-15    2.33403E-13
  4926.99    6.79409E-13    9.84428E-15    2.35500E-13
  4929.74    6.74754E-13    9.85384E-15    2.41831E-13
  4932.49    6.64382E-13    9.80036E-15    2.45720E-13
  4935.24    6.59082E-13    9.77994E-15    2.45895E-13
  4937.99    6.52845E-13    9.79919E-15    2.46878E-13
  4940.74    6.50283E-13    9.76225E-15    2.42809E-13
  4943.49    6.50154E-13    9.75973E-15    2.42864E-13
  4946.24    6.57188E-13    9.74739E-15    2.42046E-13
  4948.99    6.81977E-13    9.91332E-15    2.41242E-13
  4951.74    6.97927E-13    1.00079E-14    2.46273E-13
  4954.49    7.17103E-13    1.00940E-14    2.47199E-13
  4957.24    7.19850E-13    1.01369E-14    2.49060E-13
  4959.99    7.38522E-13    1.02267E-14    2.45012E-13
  4962.74    7.76916E-13    1.03682E-14    2.39234E-13
  4965.49    8.24107E-13    1.06114E-14    2.45831E-13
  4968.24    8.70533E-13    1.09039E-14    2.59533E-13
  4970.99    9.24773E-13    1.11187E-14    2.62780E-13
  4973.74    9.90010E-13    1.13781E-14    2.66032E-13
  4976.49    1.05807E-12    1.16749E-14    2.73031E-13
  4979.24    1.09540E-12    1.19415E-14    2.85147E-13
  4981.99    1.08038E-12    1.19167E-14    2.93414E-13
  4984.74    1.01662E-12    1.16300E-14    2.88069E-13
  4987.49    9.29751E-13    1.13156E-14    2.81914E-13
  4990.24    8.56183E-13    1.09897E-14    2.83171E-13
  4992.99    8.11665E-13    1.07374E-14    2.81593E-13
  4995.74    7.86744E-13    1.05701E-14    2.71939E-13
  4998.49    7.60082E-13    1.04023E-14    2.69283E-13
  5001.24    7.52308E-13    1.03277E-14    2.60867E-13
  5003.99    7.69418E-13    1.03685E-14    2.48743E-13
  5006.74    8.15061E-13    1.05125E-14    2.46325E-13
  5009.49    9.11609E-13    1.09049E-14    2.45826E-13
  5012.24    1.01752E-12    1.13703E-14    2.41232E-13
  5014.99    1.13630E-12    1.18236E-14    2.40360E-13
  5017.74    1.24625E-12    1.23167E-14    2.43269E-13
  5020.49    1.41213E-12    1.29168E-14    2.36149E-13
  5023.24    1.61527E-12    1.36606E-14    2.33206E-13
  5025.99    1.83439E-12    1.44538E-14    2.39074E-13
  5028.74    1.90790E-12    1.47620E-14    2.49015E-13
  5031.49    1.75094E-12    1.42151E-14    2.46166E-13
  5034.24    1.45660E-12    1.30992E-14    2.46287E-13
  5036.99    1.19516E-12    1.21523E-14    2.51066E-13
  5039.74    1.01624E-12    1.13504E-14    2.31696E-13
  5042.49    8.71135E-13    1.06188E-14    2.26461E-13
  5045.24    7.74681E-13    1.02757E-14    2.30675E-13
  5047.99    7.30582E-13    1.01035E-14    2.29416E-13
  5050.74    6.90504E-13    9.86365E-15    2.30909E-13
  5053.49    6.75312E-13    9.79649E-15    2.32716E-13
  5056.24    6.66317E-13    9.69519E-15    2.27031E-13
  5058.99    6.54493E-13    9.65818E-15    2.22594E-13
  5061.74    6.32367E-13    9.56230E-15    2.30549E-13
  5064.49    6.27517E-13    9.51785E-15    2.30248E-13
  5067.24    6.44064E-13    9.58044E-15    2.29172E-13
  5069.99    6.48382E-13    9.64544E-15    2.30190E-13
  5072.74    6.52904E-13    9.66807E-15    2.29994E-13
  5075.49    6.50436E-13    9.62972E-15    2.30899E-13
  5078.24    6.60733E-13    9.64184E-15    2.27453E-13
  5080.99    6.71327E-13    9.70974E-15    2.29533E-13
  5083.74    6.69514E-13    9.72286E-15    2.34796E-13
  5086.49    6.63061E-13    9.74786E-15    2.31744E-13
  5089.24    6.53646E-13    9.72215E-15    2.40645E-13
  5091.99    6.33853E-13    9.60835E-15    2.43462E-13
  5094.74    6.45043E-13    9.67450E-15    2.34890E-13
  5097.49    6.34360E-13    9.60257E-15    2.34806E-13
  5100.24    6.31174E-13    9.53106E-15    2.30965E-13
  5102.99    6.28948E-13    9.48553E-15    2.22895E-13
  5105.74    6.36226E-13    9.53545E-15    2.21958E-13
  5108.49    6.41455E-13    9.53743E-15    2.25251E-13
  5111.24    6.48531E-13    9.57065E-15    2.25861E-13
  5113.99    6.54541E-13    9.60243E-15    2.26115E-13
  5116.74    6.56646E-13    9.58528E-15    2.23715E-13
  5119.49    6.46742E-13    9.57016E-15    2.27148E-13
  5122.24    6.45518E-13    9.54421E-15    2.26988E-13
  5124.99    6.39568E-13    9.52662E-15    2.24824E-13
  5127.74    6.40252E-13    9.53488E-15    2.26317E-13
  5130.49    6.44232E-13    9.59914E-15    2.24047E-13
  5133.24    6.51387E-13    9.61399E-15    2.29102E-13
  5135.99    6.53530E-13    9.68356E-15    2.41479E-13
  5138.74    6.59558E-13    9.76250E-15    2.49217E-13
  5141.49    6.65178E-13    9.81885E-15    2.46493E-13
  5144.24    6.46647E-13    9.72700E-15    2.49789E-13
  5146.99    6.34122E-13    9.61075E-15    2.50843E-13
  5149.74    6.28573E-13    9.61119E-15    2.51013E-13
  5152.49    6.27519E-13    9.62232E-15    2.51895E-13
  5155.24    6.30761E-13    9.66991E-15    2.56751E-13
  5157.99    6.36108E-13    9.65298E-15    2.57310E-13
  5160.74    6.35871E-13    9.60734E-15    2.51590E-13
  5163.49    6.35340E-13    9.59151E-15    2.47441E-13
  5166.24    6.34272E-13    9.49307E-15    2.35335E-13
  5168.99    6.32586E-13    9.42978E-15    2.23498E-13
  5171.74    6.32594E-13    9.41479E-15    2.21178E-13
  5174.49    6.34204E-13    9.45105E-15    2.16948E-13
  5177.24    6.41891E-13    9.45432E-15    2.16887E-13
  5179.99    6.43430E-13    9.49771E-15    2.25402E-13
  5182.74    6.35132E-13    9.45620E-15    2.26268E-13
  5185.49    6.16796E-13    9.32003E-15    2.20708E-13
  5188.24    5.88373E-13    9.25431E-15    2.21749E-13
  5190.99    5.61630E-13    9.14730E-15    2.32730E-13
  5193.74    5.57928E-13    9.19318E-15    2.38519E-13
  5196.49    5.68498E-13    9.24109E-15    2.42666E-13
  5199.24    5.94335E-13    9.39720E-15    2.55233E-13
  5201.99    6.08527E-13    9.56317E-15    2.69242E-13
  5204.74    5.97884E-13    9.54218E-15    2.69752E-13
  5207.49    5.95934E-13    9.45776E-15    2.53954E-13
  5210.24    5.97616E-13    9.43001E-15    2.48280E-13
  5212.99    6.15109E-13    9.44117E-15    2.42377E-13
  5215.74    6.43866E-13    9.52377E-15    2.33082E-13
  5218.49    6.58677E-13    9.62601E-15    2.36477E-13
  5221.24    6.73203E-13    9.73482E-15    2.42346E-13
  5223.99    6.70039E-13    9.80883E-15    2.53801E-13
  5226.74    6.52265E-13    9.70406E-15    2.52477E-13
  5229.49    6.35609E-13    9.58319E-15    2.40931E-13
  5232.24    6.21293E-13    9.49211E-15    2.43075E-13
  5234.99    6.20581E-13    9.47870E-15    2.49620E-13
  5237.74    6.47713E-13    9.60153E-15    2.44100E-13
  5240.49    6.48785E-13    9.69626E-15    2.51630E-13
  5243.24    6.41863E-13    9.64886E-15    2.59689E-13
  5245.99    6.38432E-13    9.55916E-15    2.46341E-13
  5248.74    6.31753E-13    9.48066E-15    2.39985E-13
  5251.49    6.33360E-13    9.51746E-15    2.42125E-13
  5254.24    6.40845E-13    9.56165E-15    2.41193E-13
  5256.99    6.45932E-13    9.62895E-15    2.52221E-13
  5259.74    6.65855E-13    9.76121E-15    2.54227E-13
  5262.49    6.68967E-13    9.70656E-15    2.45137E-13
  5265.24    6.67582E-13    9.66971E-15    2.36645E-13
  5267.99    6.60791E-13    9.60630E-15    2.27510E-13
  5270.74    6.51674E-13    9.54377E-15    2.29802E-13
  5273.49    6.46922E-13    9.55511E-15    2.35352E-13
  5276.24    6.52881E-13    9.61994E-15    2.43609E-13
  5278.99    6.56497E-13    9.67105E-15    2.52209E-13
  5281.74    6.45349E-13    9.66193E-15    2.51771E-13
  5284.49    6.37953E-13    9.54420E-15    2.42346E-13
  5287.24    6.16787E-13    9.37281E-15    2.33354E-13
  5289.99    5.98780E-13    9.32336E-15    2.35175E-13
  5292.74    5.94486E-13    9.38007E-15    2.45903E-13
  5295.49    6.07145E-13    9.54119E-15    2.48398E-13
  5298.24    6.31254E-13    9.64735E-15    2.47502E-13
  5300.99    6.60315E-13    9.69905E-15    2.47275E-13
  5303.74    6.65884E-13    9.73505E-15    2.54846E-13
  5306.49    6.75355E-13    9.81440E-15    2.51682E-13
  5309.24    6.93058E-13    9.94565E-15    2.48764E-13
  5311.99    7.00687E-13    1.00075E-14    2.58134E-13
  5314.74    7.00466E-13    9.98173E-15    2.61720E-13
  5317.49    6.93074E-13    9.92509E-15    2.55724E-13
  5320.24    6.82379E-13    9.88864E-15    2.57847E-13
  5322.99    6.74861E-13    9.86706E-15    2.63670E-13
  5325.74    6.80789E-13    9.91715E-15    2.62414E-13
  5328.49    6.99951E-13    9.96936E-15    2.61614E-13
  5331.24    6.99753E-13    9.99721E-15    2.64594E-13
  5333.99    7.08069E-13    1.00674E-14    2.62218E-13
  5336.74    7.05129E-13    1.01169E-14    2.63390E-13
  5339.49    6.97993E-13    1.00869E-14    2.61879E-13
  5342.24    6.78243E-13    9.89658E-15    2.64730E-13
  5344.99    6.79278E-13    9.81257E-15    2.51895E-13
  5347.74    6.76811E-13    9.75685E-15    2.42970E-13
  5350.49    6.47242E-13    9.71409E-15    2.59040E-13
  5353.24    6.44987E-13    9.76260E-15    2.64406E-13
  5355.99    6.64004E-13    9.78397E-15    2.58122E-13
  5358.74    6.77587E-13    9.87527E-15    2.57545E-13
  5361.49    6.74240E-13    9.79986E-15    2.56705E-13
  5364.24    6.69209E-13    9.74107E-15    2.54291E-13
  5366.99    6.73163E-13    9.77411E-15    2.45858E-13
  5369.74    6.79712E-13    9.71882E-15    2.45637E-13
  5372.49    6.80177E-13    9.74326E-15    2.51830E-13
  5375.24    7.01664E-13    9.86093E-15    2.50416E-13
  5377.99    7.10961E-13    9.92450E-15    2.49973E-13
  5380.74    7.07803E-13    9.92901E-15    2.56351E-13
  5383.49    7.01988E-13    9.87076E-15    2.55465E-13
  5386.24    6.97983E-13    9.81849E-15    2.47588E-13
  5388.99    6.76301E-13    9.72477E-15    2.48519E-13
  5391.74    6.62129E-13    9.65939E-15    2.48610E-13
  5394.49    6.66468E-13    9.66389E-15    2.44177E-13
  5397.24    6.69413E-13    9.68050E-15    2.46077E-13
  5399.99    6.82016E-13    9.72573E-15    2.47787E-13
  5402.74    6.81013E-13    9.72910E-15    2.49808E-13
  5405.49    6.78487E-13    9.71404E-15    2.48392E-13
  5408.24    6.79872E-13    9.67736E-15    2.45003E-13
  5410.99    6.70940E-13    9.64176E-15    2.44577E-13
  5413.74    6.71313E-13    9.61669E-15    2.39534E-13
  5416.49    6.64896E-13    9.65298E-15    2.43335E-13
  5419.24    6.48749E-13    9.65937E-15    2.51205E-13
  5421.99    6.53294E-13    9.68206E-15    2.49703E-13
  5424.74    6.68417E-13    9.67702E-15    2.44599E-13
  5427.49    6.53940E-13    9.62367E-15    2.47024E-13
  5430.24    6.42267E-13    9.57013E-15    2.48433E-13
  5432.99    6.45750E-13    9.57110E-15    2.47427E-13
  5435.74    6.62031E-13    9.67180E-15    2.49278E-13
  5438.49    6.66904E-13    9.77145E-15    2.59355E-13
  5441.24    6.71328E-13    9.79614E-15    2.64677E-13
  5443.99    6.81397E-13    9.80285E-15    2.56690E-13
  5446.74    6.77524E-13    9.82833E-15    2.58955E-13
  5449.49    6.72711E-13    9.89687E-15    2.60393E-13
  5452.24    6.73507E-13    9.79298E-15    2.56576E-13
  5454.99    6.64054E-13    9.71212E-15    2.61759E-13
  5457.74    6.67671E-13    9.86433E-15    2.80664E-13
  5460.49    6.77139E-13    1.01181E-14    3.15298E-13
  5463.24    6.84681E-13    1.03321E-14    3.47865E-13
  5465.99    6.92213E-13    1.03376E-14    3.49610E-13
  5468.74    6.76057E-13    1.01082E-14    3.21708E-13
  5471.49    6.80235E-13    9.97680E-15    2.81505E-13
  5474.24    6.70313E-13    9.85739E-15    2.67574E-13
  5476.99    6.62819E-13    9.81220E-15    2.66032E-13
  5479.74    6.67145E-13    9.76921E-15    2.66339E-13
  5482.49    6.65696E-13    9.75572E-15    2.66783E-13
  5485.24    6.66719E-13    9.81493E-15    2.68445E-13
  5487.99    6.62758E-13    9.78786E-15    2.75228E-13
  5490.74    6.71537E-13    9.85124E-15    2.70204E-13
  5493.49    6.64135E-13    9.90364E-15    2.74505E-13
  5496.24    6.61922E-13    9.81466E-15    2.70420E-13
  5498.99    6.59346E-13    9.76735E-15    2.67476E-13
  5501.74    6.44752E-13    9.75886E-15    2.79024E-13
  5504.49    6.47523E-13    9.78724E-15    2.79177E-13
  5507.24    6.64005E-13    9.81324E-15    2.74684E-13
  5509.99    6.70581E-13    9.80804E-15    2.71195E-13
  5512.74    6.74663E-13    9.91387E-15    2.70929E-13
  5515.49    6.69461E-13    9.90896E-15    2.80337E-13
  5518.24    6.68849E-13    9.81590E-15    2.79145E-13
  5520.99    6.77111E-13    9.87875E-15    2.77046E-13
  5523.74    6.74490E-13    9.86749E-15    2.75004E-13
  5526.49    6.67727E-13    9.84565E-15    2.71941E-13
  5529.24    6.63947E-13    9.78137E-15    2.70291E-13
  5531.99    6.62300E-13    9.75537E-15    2.67921E-13
  5534.74    6.58466E-13    9.76478E-15    2.69581E-13
  5537.49    6.57936E-13    9.78697E-15    2.79056E-13
  5540.24    6.71761E-13    9.86748E-15    2.83684E-13
  5542.99    6.83598E-13    9.99415E-15    2.91525E-13
  5545.74    6.78370E-13    1.00695E-14    3.12896E-13
  5548.49    6.64171E-13    1.00581E-14    3.21182E-13
  5551.24    6.70368E-13    9.95949E-15    3.08660E-13
  5553.99    6.69563E-13    9.86526E-15    2.99641E-13
  5556.74    6.63944E-13    9.88353E-15    2.94832E-13
  5559.49    6.61476E-13    9.95592E-15    2.96826E-13
  5562.24    6.71702E-13    9.99491E-15    3.01456E-13
  5564.99    6.72028E-13    1.00856E-14    3.19790E-13
  5567.74    6.83173E-13    1.03166E-14    3.60474E-13
  5570.49    6.80304E-13    1.09249E-14    4.82202E-13
  5573.24    6.95031E-13    1.30371E-14    9.91457E-13
  5575.99    6.88001E-13    1.85552E-14    2.65942E-12
  5578.74    6.90735E-13    2.44888E-14    5.01039E-12
  5581.49    6.76004E-13    2.63486E-14    5.85809E-12
  5584.24    6.79916E-13    2.32369E-14    4.31663E-12
  5586.99    6.75006E-13    1.67709E-14    1.94807E-12
  5589.74    6.79322E-13    1.20989E-14    7.43646E-13
  5592.49    6.64502E-13    1.04996E-14    4.22688E-13
  5595.24    6.62433E-13    1.01311E-14    3.47823E-13
  5597.99    6.75783E-13    1.00240E-14    3.02897E-13
  5600.74    6.81763E-13    9.98388E-15    3.02596E-13
  5603.49    6.71625E-13    1.00774E-14    3.15054E-13
  5606.24    6.62557E-13    1.00797E-14    3.21733E-13
  5608.99    6.58002E-13    1.01135E-14    3.24085E-13
  5611.74    6.47870E-13    9.95013E-15    3.16386E-13
  5614.49    6.39533E-13    9.86036E-15    3.03488E-13
  5617.24    6.43753E-13    9.81814E-15    2.96351E-13
  5619.99    6.55865E-13    9.88003E-15    2.93877E-13
  5622.74    6.48481E-13    9.94259E-15    3.07400E-13
  5625.49    6.54992E-13    9.99841E-15    3.18288E-13
  5628.24    6.73018E-13    1.00281E-14    3.10422E-13
  5630.99    6.87465E-13    1.00629E-14    3.01027E-13
  5633.74    6.90476E-13    1.00260E-14    2.93606E-13
  5636.49    6.89931E-13    1.00191E-14    2.86448E-13
  5639.24    6.77668E-13    9.99980E-15    2.90471E-13
  5641.99    6.68703E-13    9.96550E-15    2.95840E-13
  5644.74    6.64918E-13    9.98853E-15    3.05107E-13
  5647.49    6.64462E-13    1.00319E-14    3.12919E-13
  5650.24    6.68662E-13    1.00448E-14    3.07446E-13
  5652.99    6.68499E-13    1.00044E-14    3.04918E-13
  5655.74    6.82567E-13    9.99816E-15    2.96812E-13
  5658.49    6.76828E-13    9.99178E-15    2.99284E-13
  5661.24    6.64237E-13    9.99876E-15    3.07683E-13
  5663.99    6.56287E-13    9.96074E-15    3.11100E-13
  5666.74    6.59062E-13    9.99207E-15    3.21794E-13
  5669.49    6.66070E-13    1.00972E-14    3.25629E-13
  5672.24    6.69812E-13    1.02330E-14    3.32849E-13
  5674.99    6.72486E-13    1.02884E-14    3.42482E-13
  5677.74    6.64875E-13    1.02028E-14    3.45029E-13
  5680.49    6.61755E-13    1.02112E-14    3.49804E-13
  5683.24    6.54651E-13    1.03166E-14    3.66858E-13
  5685.99    6.54462E-13    1.04285E-14    3.91660E-13
  5688.74    6.50806E-13    1.05447E-14    4.23932E-13
  5691.49    6.62820E-13    1.06576E-14    4.32291E-13
  5694.24    6.74440E-13    1.06746E-14    4.27816E-13
  5696.99    6.76127E-13    1.05792E-14    4.13220E-13
  5699.74    6.78355E-13    1.04968E-14    3.90089E-13
  5702.49    6.79737E-13    1.03832E-14    3.70226E-13
  5705.24    6.72701E-13    1.02482E-14    3.53237E-13
  5707.99    6.58831E-13    1.01850E-14    3.50201E-13
  5710.74    6.52547E-13    1.01636E-14    3.45176E-13
  5713.49    6.57516E-13    1.02081E-14    3.42167E-13
  5716.24    6.71119E-13    1.02116E-14    3.37858E-13
  5718.99    6.80682E-13    1.02166E-14    3.29184E-13
  5721.74    6.75730E-13    1.02531E-14    3.37168E-13
  5724.49    6.76111E-13    1.02251E-14    3.31359E-13
  5727.24    6.63608E-13    1.02014E-14    3.36834E-13
  5729.99    6.58840E-13    1.01885E-14    3.30942E-13
  5732.74    6.54354E-13    1.01296E-14    3.27842E-13
  5735.49    6.57026E-13    1.01293E-14    3.23398E-13
  5738.24    6.64098E-13    1.02193E-14    3.23521E-13
  5740.99    6.68398E-13    1.02180E-14    3.25266E-13
  5743.74    6.81588E-13    1.02294E-14    3.22627E-13
  5746.49    6.89750E-13    1.02897E-14    3.22619E-13
  5749.24    6.90648E-13    1.03163E-14    3.24367E-13
  5751.99    6.89297E-13    1.02653E-14    3.22981E-13
  5754.74    7.01411E-13    1.02915E-14    3.14961E-13
  5757.49    6.88655E-13    1.02848E-14    3.19371E-13
  5760.24    6.87833E-13    1.02477E-14    3.25495E-13
  5762.99    6.93737E-13    1.02666E-14    3.24446E-13
  5765.74    6.93216E-13    1.03409E-14    3.29875E-13
  5768.49    6.92696E-13    1.04253E-14    3.44730E-13
  5771.24    6.99207E-13    1.04143E-14    3.47768E-13
  5773.99    6.91392E-13    1.03765E-14    3.48528E-13
  5776.74    6.94422E-13    1.03703E-14    3.36907E-13
  5779.49    6.80070E-13    1.02983E-14    3.33717E-13
  5782.24    6.84118E-13    1.02752E-14    3.24565E-13
  5784.99    6.78565E-13    1.01979E-14    3.29528E-13
  5787.74    6.82119E-13    1.02567E-14    3.31632E-13
  5790.49    6.76103E-13    1.03121E-14    3.51376E-13
  5793.24    6.90932E-13    1.03891E-14    3.52556E-13
  5795.99    6.79002E-13    1.03981E-14    3.61155E-13
  5798.74    6.72073E-13    1.02955E-14    3.49552E-13
  5801.49    6.68647E-13    1.01893E-14    3.38473E-13
  5804.24    6.65391E-13    1.01507E-14    3.31650E-13
  5806.99    6.43763E-13    1.01154E-14    3.41939E-13
  5809.74    6.34030E-13    1.01117E-14    3.49953E-13
  5812.49    6.46063E-13    1.00972E-14    3.40792E-13
  5815.24    6.65587E-13    1.02077E-14    3.40746E-13
  5817.99    6.69848E-13    1.02667E-14    3.46000E-13
  5820.74    6.83111E-13    1.03579E-14    3.46754E-13
  5823.49    6.88422E-13    1.04604E-14    3.53118E-13
  5826.24    6.89454E-13    1.04144E-14    3.54549E-13
  5828.99    6.96867E-13    1.04861E-14    3.46485E-13
  5831.74    6.86799E-13    1.04249E-14    3.53999E-13
  5834.49    6.98555E-13    1.05690E-14    3.47787E-13
  5837.24    6.79896E-13    1.06079E-14    3.67466E-13
  5839.99    6.91243E-13    1.04279E-14    3.53248E-13
  5842.74    6.83351E-13    1.04083E-14    3.66888E-13
  5845.49    6.97791E-13    1.04263E-14    3.57228E-13
  5848.24    6.91984E-13    1.04126E-14    3.66715E-13
  5850.99    6.88428E-13    1.03988E-14    3.71855E-13
  5853.74    6.94905E-13    1.04173E-14    3.66316E-13
  5856.49    6.90959E-13    1.04198E-14    3.73075E-13
  5859.24    6.96201E-13    1.05048E-14    3.69645E-13
  5861.99    7.01266E-13    1.05120E-14    3.83812E-13
  5864.74    6.91865E-13    1.06131E-14    4.04177E-13
  5867.49    6.99148E-13    1.09463E-14    4.72673E-13
  5870.24    6.87070E-13    1.11086E-14    5.02467E-13
  5872.99    6.94692E-13    1.10157E-14    4.98941E-13
  5875.74    6.89231E-13    1.07975E-14    4.53290E-13
  5878.49    6.74434E-13    1.06258E-14    4.26217E-13
  5881.24    6.80174E-13    1.05192E-14    4.04865E-13
  5883.99    6.64648E-13    1.07489E-14    4.67812E-13
  5886.74    6.70725E-13    1.20112E-14    7.20945E-13
  5889.49    6.75811E-13    1.46839E-14    1.42978E-12
  5892.24    6.99954E-13    1.75704E-14    2.27917E-12
  5894.99    6.90671E-13    1.84372E-14    2.59789E-12
  5897.74    6.44361E-13    1.78048E-14    2.35945E-12
  5900.49    6.95996E-13    1.60405E-14    1.74183E-12
  5903.24    6.44486E-13    1.39757E-14    1.16127E-12
  5905.99    6.73814E-13    1.19325E-14    6.42715E-13
  5908.74    6.27324E-13    1.07864E-14    4.94837E-13
  5911.49    6.47893E-13    1.05431E-14    4.27075E-13
  5914.24    5.98013E-13    1.04189E-14    4.52278E-13
  5916.99    5.96043E-13    1.05673E-14    4.66723E-13
  5919.74    5.88176E-13    1.06257E-14    4.79145E-13
  5922.49    5.95476E-13    1.06477E-14    4.67352E-13
  5925.24    6.11689E-13    1.05022E-14    4.52292E-13
  5927.99    6.40670E-13    1.07579E-14    4.53492E-13
  5930.74    6.48569E-13    1.08037E-14    4.74794E-13
  5933.49    6.56112E-13    1.09225E-14    4.98648E-13
  5936.24    6.62742E-13    1.10836E-14    5.19896E-13
  5938.99    6.67193E-13    1.10485E-14    4.90158E-13
  5941.74    6.65305E-13    1.07127E-14    4.39852E-13
  5944.49    6.69768E-13    1.06178E-14    4.18290E-13
  5947.24    6.69178E-13    1.06833E-14    4.25958E-13
  5949.99    6.69420E-13    1.07412E-14    4.45050E-13
  5952.74    6.72195E-13    1.07754E-14    4.61883E-13
  5955.49    6.59208E-13    1.08720E-14    4.94268E-13
  5958.24    6.77022E-13    1.09078E-14    4.74306E-13
  5960.99    6.56243E-13    1.06902E-14    4.55955E-13
  5963.74    6.56914E-13    1.05428E-14    4.25111E-13
  5966.49    6.67908E-13    1.05706E-14    4.10828E-13
  5969.24    6.75718E-13    1.05905E-14    4.12322E-13
  5971.99    6.67670E-13    1.07814E-14    4.27651E-13
  5974.74    6.65769E-13    1.07735E-14    4.40710E-13
  5977.49    6.56667E-13    1.07307E-14    4.52175E-13
  5980.24    6.58494E-13    1.07366E-14    4.58312E-13
  5982.99    6.58264E-13    1.08069E-14    4.44156E-13
  5985.74    6.58654E-13    1.05836E-14    4.13441E-13
  5988.49    6.59591E-13    1.04828E-14    3.95876E-13
  5991.24    6.64312E-13    1.04453E-14    3.86170E-13
  5993.99    6.68229E-13    1.04390E-14    3.85004E-13
  5996.74    6.81030E-13    1.04230E-14    3.80535E-13
  5999.49    6.78836E-13    1.04390E-14    3.82379E-13
  6002.24    6.74456E-13    1.04718E-14    3.89900E-13
  6004.99    6.64068E-13    1.05598E-14    4.00844E-13
  6007.74    6.63091E-13    1.04196E-14    3.90190E-13
  6010.49    6.56108E-13    1.03583E-14    3.82531E-13
  6013.24    6.50602E-13    1.02876E-14    3.72057E-13
  6015.99    6.56985E-13    1.02267E-14    3.55037E-13
  6018.74    6.59321E-13    1.02529E-14    3.56583E-13
  6021.49    6.56434E-13    1.02327E-14    3.51535E-13
  6024.24    6.57999E-13    1.02287E-14    3.45290E-13
  6026.99    6.54760E-13    1.02092E-14    3.48290E-13
  6029.74    6.48156E-13    1.02050E-14    3.53594E-13
  6032.49    6.53672E-13    1.02288E-14    3.52245E-13
  6035.24    6.39802E-13    1.02265E-14    3.61713E-13
  6037.99    6.46258E-13    1.01693E-14    3.51745E-13
  6040.74    6.44044E-13    1.01613E-14    3.46780E-13
  6043.49    6.38950E-13    1.01394E-14    3.39998E-13
  6046.24    6.42063E-13    1.01420E-14    3.30245E-13
  6048.99    6.52553E-13    1.01656E-14    3.26217E-13
  6051.74    6.61230E-13    1.01224E-14    3.21216E-13
  6054.49    6.74571E-13    1.01374E-14    3.12802E-13
  6057.24    6.76061E-13    1.02546E-14    3.16799E-13
  6059.99    6.79548E-13    1.02607E-14    3.21276E-13
  6062.74    6.80837E-13    1.02237E-14    3.20896E-13
  6065.49    6.70862E-13    1.02304E-14    3.24929E-13
  6068.24    6.76399E-13    1.02473E-14    3.27009E-13
  6070.99    6.75047E-13    1.02079E-14    3.22095E-13
  6073.74    6.75202E-13    1.02059E-14    3.16746E-13
  6076.49    6.72974E-13    1.01919E-14    3.16176E-13
  6079.24    6.71724E-13    1.01985E-14    3.09066E-13
  6081.99    6.79908E-13    1.01694E-14    3.04393E-13
  6084.74    6.69581E-13    1.01842E-14    3.11441E-13
  6087.49    6.66768E-13    1.02040E-14    3.10569E-13
  6090.24    6.68691E-13    1.01755E-14    3.07724E-13
  6092.99    6.79565E-13    1.01921E-14    3.01306E-13
  6095.74    6.83860E-13    1.02068E-14    3.06249E-13
  6098.49    6.70169E-13    1.02428E-14    3.21619E-13
  6101.24    6.78852E-13    1.02608E-14    3.18028E-13
  6103.99    6.76158E-13    1.02345E-14    3.19701E-13
  6106.74    6.71664E-13    1.02613E-14    3.19231E-13
  6109.49    6.74472E-13    1.03139E-14    3.12723E-13
  6112.24    6.81001E-13    1.03402E-14    3.10372E-13
  6114.99    6.65825E-13    1.02299E-14    3.12447E-13
  6117.74    6.66171E-13    1.01704E-14    3.10072E-13
  6120.49    6.72524E-13    1.01765E-14    2.99425E-13
  6123.24    6.74001E-13    1.01650E-14    2.93952E-13
  6125.99    6.68112E-13    1.01087E-14    2.91892E-13
  6128.74    6.53331E-13    1.00770E-14    2.94705E-13
  6131.49    6.53900E-13    1.00884E-14    2.94299E-13
  6134.24    6.59110E-13    1.01554E-14    2.99157E-13
  6136.99    6.65547E-13    1.02183E-14    3.04522E-13
  6139.74    6.63401E-13    1.02557E-14    3.13893E-13
  6142.49    6.63469E-13    1.03467E-14    3.29579E-13
  6145.24    6.55839E-13    1.03627E-14    3.39445E-13
  6147.99    6.55065E-13    1.03164E-14    3.30877E-13
  6150.74    6.50527E-13    1.02569E-14    3.18897E-13
  6153.49    6.60338E-13    1.02058E-14    3.04497E-13
  6156.24    6.44646E-13    1.02322E-14    3.19573E-13
  6158.99    6.53126E-13    1.02722E-14    3.11296E-13
  6161.74    6.55146E-13    1.02642E-14    3.05731E-13
  6164.49    6.43930E-13    1.02794E-14    3.13639E-13
  6167.24    6.40706E-13    1.02562E-14    3.11679E-13
  6169.99    6.61453E-13    1.03587E-14    3.06563E-13
  6172.74    6.50615E-13    1.04305E-14    3.30727E-13
  6175.49    6.45123E-13    1.03742E-14    3.36866E-13
  6178.24    6.51946E-13    1.03001E-14    3.14427E-13
  6180.99    6.30953E-13    1.02093E-14    3.13241E-13
  6183.74    6.31673E-13    1.01459E-14    2.97365E-13
  6186.49    6.12289E-13    1.00173E-14    2.97614E-13
  6189.24    6.29727E-13    1.00351E-14    2.75153E-13
  6191.99    6.20187E-13    1.00270E-14    2.82162E-13
  6194.74    6.07479E-13    1.01003E-14    3.02481E-13
  6197.49    6.21215E-13    1.01708E-14    2.94550E-13
  6200.24    6.30998E-13    1.01892E-14    2.97377E-13
  6202.99    6.31174E-13    1.02904E-14    3.10160E-13
  6205.74    6.41217E-13    1.04093E-14    3.20181E-13
  6208.49    6.47309E-13    1.03990E-14    3.11314E-13
  6211.24    6.36356E-13    1.02513E-14    3.00081E-13
  6213.99    6.29524E-13    1.02047E-14    2.96426E-13
  6216.74    6.29022E-13    1.01723E-14    2.94929E-13
  6219.49    6.38051E-13    1.02395E-14    2.96939E-13
  6222.24    6.39416E-13    1.04544E-14    3.12386E-13
  6224.99    6.37347E-13    1.04378E-14    3.26667E-13
  6227.74    6.33973E-13    1.04176E-14    3.23042E-13
  6230.49    6.32014E-13    1.04375E-14    3.22864E-13
  6233.24    6.35786E-13    1.05911E-14    3.56071E-13
  6235.99    6.40884E-13    1.11140E-14    4.48844E-13
  6238.74    6.36349E-13    1.16126E-14    5.37965E-13
  6241.49    6.24806E-13    1.16133E-14    5.37071E-13
  6244.24    6.22559E-13    1.12150E-14    4.69366E-13
  6246.99    6.15883E-13    1.08069E-14    4.00112E-13
  6249.74    6.15798E-13    1.06191E-14    3.57803E-13
  6252.49    6.19126E-13    1.04773E-14    3.32277E-13
  6255.24    6.28211E-13    1.06496E-14    3.36322E-13
  6257.99    6.27726E-13    1.09042E-14    4.02341E-13
  6260.74    6.27627E-13    1.13231E-14    4.70729E-13
  6263.49    6.19462E-13    1.13629E-14    4.82117E-13
  6266.24    6.14418E-13    1.11860E-14    4.33608E-13
  6268.99    5.99836E-13    1.08547E-14    3.98765E-13
  6271.74    6.23532E-13    1.06562E-14    3.69823E-13
  6274.49    6.24554E-13    1.04465E-14    3.38056E-13
  6277.24    6.24850E-13    1.04133E-14    3.22850E-13
  6279.99    6.08507E-13    1.03429E-14    3.23227E-13
  6282.74    6.30169E-13    1.03091E-14    3.34717E-13
  6285.49    6.28803E-13    1.04847E-14    3.52052E-13
  6288.24    6.27388E-13    1.09791E-14    4.10077E-13
  6290.99    6.34984E-13    1.12793E-14    4.37596E-13
  6293.74    6.44967E-13    1.12828E-14    4.28456E-13
  6296.49    6.42683E-13    1.13811E-14    4.62567E-13
  6299.24    6.45664E-13    1.24453E-14    6.97032E-13
  6301.99    6.40633E-13    1.40947E-14    1.02707E-12
  6304.74    6.43625E-13    1.44578E-14    1.11857E-12
  6307.49    6.41107E-13    1.34482E-14    9.42375E-13
  6310.24    6.56032E-13    1.22381E-14    6.62059E-13
  6312.99    6.65630E-13    1.15495E-14    4.88091E-13
  6315.74    6.45542E-13    1.10360E-14    3.74560E-13
  6318.49    6.55930E-13    1.08253E-14    3.29276E-13
  6321.24    6.77196E-13    1.09214E-14    3.33116E-13
  6323.99    7.00123E-13    1.12619E-14    3.55053E-13
  6326.74    7.05140E-13    1.14068E-14    3.80099E-13
  6329.49    6.98015E-13    1.15769E-14    4.11955E-13
  6332.24    6.88434E-13    1.17545E-14    4.50503E-13
  6334.99    6.67780E-13    1.15455E-14    4.35038E-13
  6337.74    6.48788E-13    1.11266E-14    3.73618E-13
  6340.49    6.45972E-13    1.07280E-14    3.12485E-13
  6343.24    6.40213E-13    1.06222E-14    2.96715E-13
  6345.99    6.46623E-13    1.06079E-14    3.03203E-13
  6348.74    6.50082E-13    1.09832E-14    3.12898E-13
  6351.49    6.55682E-13    1.10758E-14    3.32078E-13
  6354.24    6.56252E-13    1.10496E-14    3.58419E-13
  6356.99    6.48856E-13    1.11756E-14    3.86878E-13
  6359.74    6.49519E-13    1.13998E-14    4.10351E-13
  6362.49    6.47579E-13    1.15659E-14    4.60259E-13
  6365.24    6.43976E-13    1.18527E-14    5.28391E-13
  6367.99    6.41049E-13    1.19470E-14    5.37106E-13
  6370.74    6.55361E-13    1.15170E-14    4.60385E-13
  6373.49    6.49920E-13    1.09632E-14    3.50745E-13
  6376.24    6.60546E-13    1.07583E-14    3.05800E-13
  6378.99    6.51808E-13    1.08459E-14    3.03160E-13
  6381.74    6.44616E-13    1.08881E-14    3.15345E-13
  6384.49    6.40739E-13    1.09817E-14    3.24439E-13
  6387.24    6.40387E-13    1.11404E-14    3.33104E-13
  6389.99    6.39765E-13    1.11883E-14    3.40634E-13
  6392.74    6.57041E-13    1.10488E-14    3.22548E-13
  6395.49    6.63861E-13    1.09168E-14    2.90535E-13
  6398.24    6.61428E-13    1.08763E-14    2.77355E-13
  6400.99    6.61593E-13    1.08254E-14    2.71930E-13
  6403.74    6.60882E-13    1.08031E-14    2.71061E-13
  6406.49    6.55960E-13    1.08079E-14    2.71406E-13
  6409.24    6.56777E-13    1.08241E-14    2.72307E-13
  6411.99    6.56736E-13    1.08581E-14    2.72389E-13
  6414.74    6.58865E-13    1.08419E-14    2.73824E-13
  6417.49    6.51737E-13    1.08849E-14    2.84268E-13
  6420.24    6.55681E-13    1.09991E-14    2.88239E-13
  6422.99    6.56042E-13    1.10722E-14    2.86368E-13
  6425.74    6.47771E-13    1.10191E-14    2.90867E-13
  6428.49    6.55221E-13    1.09373E-14    2.73044E-13
  6431.24    6.47885E-13    1.09021E-14    2.69833E-13
  6433.99    6.56722E-13    1.09639E-14    2.59411E-13
  6436.74    6.51716E-13    1.08898E-14    2.60723E-13
  6439.49    6.61487E-13    1.09498E-14    2.57190E-13
  6442.24    6.52882E-13    1.09091E-14    2.58883E-13
  6444.99    6.36753E-13    1.08911E-14    2.66623E-13
  6447.74    6.64588E-13    1.09367E-14    2.48069E-13
  6450.49    6.59817E-13    1.10376E-14    2.63926E-13
  6453.24    6.69207E-13    1.12105E-14    2.70556E-13
  6455.99    6.64021E-13    1.12002E-14    2.76918E-13
  6458.74    6.46281E-13    1.11478E-14    2.95280E-13
  6461.49    6.60118E-13    1.12942E-14    2.97586E-13
  6464.24    6.63793E-13    1.16202E-14    3.36073E-13
  6466.99    6.63900E-13    1.18353E-14    3.89786E-13
  6469.74    6.62184E-13    1.20866E-14    4.27257E-13
  6472.49    6.57632E-13    1.21197E-14    4.25947E-13
  6475.24    6.37222E-13    1.18636E-14    3.99868E-13
  6477.99    6.56414E-13    1.15089E-14    3.27778E-13
  6480.74    6.34353E-13    1.12791E-14    3.06430E-13
  6483.49    6.52256E-13    1.12168E-14    2.77245E-13
  6486.24    6.52060E-13    1.11457E-14    2.64447E-13
  6488.99    6.46794E-13    1.10798E-14    2.55654E-13
  6491.74    6.64771E-13    1.11220E-14    2.43890E-13
  6494.49    6.57298E-13    1.12364E-14    2.66308E-13
  6497.24    6.53409E-13    1.14685E-14    3.21364E-13
  6499.99    6.66689E-13    1.20358E-14    4.07855E-13
  6502.74    6.59185E-13    1.22742E-14    4.53221E-13
  6505.49    6.51611E-13    1.21567E-14    4.27812E-13
  6508.24    6.52513E-13    1.17143E-14    3.57196E-13
  6510.99    6.43553E-13    1.14661E-14    3.17865E-13
  6513.74    6.45453E-13    1.12207E-14    2.82145E-13
  6516.49    6.41280E-13    1.11072E-14    2.66713E-13
  6519.24    6.16336E-13    1.09267E-14    2.65379E-13
  6521.99    6.07577E-13    1.09242E-14    2.71896E-13
  6524.74    5.99508E-13    1.10231E-14    2.91147E-13
  6527.49    6.08726E-13    1.12080E-14    3.04355E-13
  6530.24    6.34168E-13    1.12286E-14    2.97225E-13
  6532.99    6.34552E-13    1.13956E-14    3.36310E-13
  6535.74    6.39726E-13    1.16965E-14    3.89405E-13
  6538.49    6.44113E-13    1.16355E-14    3.73811E-13
  6541.24    6.35186E-13    1.14183E-14    3.28917E-13
  6543.99    6.54493E-13    1.13138E-14    3.05986E-13
  6546.74    6.62386E-13    1.14053E-14    3.14430E-13
  6549.49    6.60322E-13    1.13967E-14    3.21702E-13
  6552.24    6.64300E-13    1.14575E-14    3.40274E-13
  6554.99    6.87157E-13    1.18383E-14    3.81990E-13
  6557.74    7.07640E-13    1.21165E-14    3.99431E-13
  6560.49    7.18563E-13    1.19932E-14    3.59723E-13
  6563.24    7.63377E-13    1.18233E-14    2.92522E-13
  6565.99    8.16089E-13    1.20802E-14    2.73456E-13
  6568.74    8.80567E-13    1.25068E-14    2.90517E-13
  6571.49    9.90030E-13    1.30220E-14    3.03077E-13
  6574.24    1.10001E-12    1.35454E-14    3.14710E-13
  6576.99    1.15145E-12    1.39954E-14    3.44899E-13
  6579.74    1.14292E-12    1.40828E-14    3.74543E-13
  6582.49    1.17997E-12    1.42359E-14    3.64268E-13
  6585.24    1.38653E-12    1.49702E-14    3.19896E-13
  6587.99    1.74418E-12    1.63145E-14    2.75317E-13
  6590.74    1.98836E-12    1.72003E-14    2.59061E-13
  6593.49    1.89284E-12    1.68284E-14    2.60562E-13
  6596.24    1.57360E-12    1.56169E-14    2.69733E-13
  6598.99    1.30680E-12    1.45681E-14    2.78685E-13
  6601.74    1.21993E-12    1.43614E-14    2.92831E-13
  6604.49    1.32959E-12    1.50058E-14    3.07877E-13
  6607.24    1.58286E-12    1.61993E-14    3.22298E-13
  6609.99    1.82063E-12    1.71871E-14    3.19369E-13
  6612.74    1.83603E-12    1.71131E-14    2.89721E-13
  6615.49    1.58684E-12    1.58476E-14    2.56280E-13
  6618.24    1.24763E-12    1.42651E-14    2.46938E-13
  6620.99    1.00886E-12    1.31158E-14    2.41099E-13
  6623.74    8.82244E-13    1.24872E-14    2.35039E-13
  6626.49    8.16022E-13    1.21713E-14    2.42172E-13
  6629.24    7.63311E-13    1.19118E-14    2.49216E-13
  6631.99    7.29423E-13    1.18475E-14    2.59325E-13
  6634.74    6.93939E-13    1.17972E-14    2.79340E-13
  6637.49    6.80050E-13    1.16785E-14    2.79358E-13
  6640.24    6.82685E-13    1.16608E-14    2.66581E-13
  6642.99    6.71561E-13    1.15984E-14    2.58510E-13
  6645.74    6.76374E-13    1.15673E-14    2.47256E-13
  6648.49    6.70698E-13    1.15137E-14    2.43972E-13
  6651.24    6.60486E-13    1.14789E-14    2.49907E-13
  6653.99    6.67948E-13    1.14955E-14    2.41468E-13
  6656.74    6.60919E-13    1.15298E-14    2.43462E-13
  6659.49    6.50460E-13    1.15283E-14    2.44702E-13
  6662.24    6.47733E-13    1.14893E-14    2.54606E-13
  6664.99    6.54134E-13    1.15089E-14    2.52970E-13
  6667.74    6.62080E-13    1.15986E-14    2.55868E-13
  6670.49    6.49303E-13    1.16028E-14    2.66321E-13
  6673.24    6.65599E-13    1.15519E-14    2.44786E-13
  6675.99    6.42461E-13    1.15682E-14    2.60306E-13
  6678.74    6.76302E-13    1.15500E-14    2.22224E-13
  6681.49    6.48404E-13    1.15320E-14    2.43223E-13
  6684.24    6.64567E-13    1.14985E-14    2.26811E-13
  6686.99    6.23973E-13    1.14661E-14    2.63409E-13
  6689.74    6.67618E-13    1.14363E-14    2.19253E-13
  6692.49    6.27449E-13    1.14728E-14    2.49107E-13
  6695.24    6.63870E-13    1.14287E-14    2.16515E-13
  6697.99    6.39292E-13    1.14779E-14    2.48364E-13
  6700.74    6.61716E-13    1.15685E-14    2.35260E-13
  6703.49    6.43616E-13    1.15763E-14    2.58860E-13
  6706.24    6.55114E-13    1.17150E-14    2.50660E-13
  6708.99    6.49107E-13    1.15959E-14    2.48979E-13
  6711.74    6.64147E-13    1.16557E-14    2.38346E-13
  6714.49    6.41914E-13    1.16466E-14    2.50474E-13
  6717.24    6.44591E-13    1.16565E-14    2.52604E-13
  6719.99    6.50919E-13    1.17310E-14    2.45491E-13
  6722.74    6.55750E-13    1.16532E-14    2.37574E-13
  6725.49    6.66874E-13    1.16869E-14    2.32653E-13
  6728.24    6.57391E-13    1.16938E-14    2.37972E-13
  6730.99    6.68676E-13    1.17778E-14    2.39148E-13
  6733.74    6.74915E-13    1.19043E-14    2.39221E-13
  6736.49    7.19377E-13    1.22151E-14    2.33957E-13
  6739.24    7.55562E-13    1.24289E-14    2.46021E-13
  6741.99    8.45086E-13    1.29066E-14    2.42645E-13
  6744.74    8.96117E-13    1.32769E-14    2.46025E-13
  6747.49    8.93588E-13    1.32624E-14    2.52890E-13
  6750.24    8.39322E-13    1.30245E-14    2.49229E-13
  6752.99    8.13820E-13    1.28094E-14    2.34612E-13
  6755.74    8.37155E-13    1.30605E-14    2.37891E-13
  6758.49    8.61380E-13    1.32090E-14    2.43182E-13
  6761.24    8.62458E-13    1.31376E-14    2.36660E-13
  6763.99    7.95624E-13    1.28284E-14    2.39935E-13
  6766.74    7.26151E-13    1.25108E-14    2.42471E-13
  6769.49    6.86007E-13    1.22619E-14    2.37997E-13
  6772.24    6.71894E-13    1.22555E-14    2.32714E-13
  6774.99    6.70661E-13    1.22192E-14    2.27467E-13
  6777.74    6.58592E-13    1.20951E-14    2.29251E-13
  6780.49    6.51191E-13    1.20100E-14    2.25492E-13
  6783.24    6.46467E-13    1.20180E-14    2.32040E-13
  6785.99    6.46676E-13    1.20167E-14    2.32140E-13
  6788.74    6.56102E-13    1.21534E-14    2.38452E-13
  6791.49    6.57234E-13    1.21542E-14    2.32946E-13
  6794.24    6.58127E-13    1.21722E-14    2.29553E-13
  6796.99    6.43018E-13    1.22032E-14    2.36367E-13
  6799.74    6.58295E-13    1.23016E-14    2.36153E-13
  6802.49    6.58226E-13    1.22726E-14    2.31834E-13
  6805.24    6.52822E-13    1.22508E-14    2.32992E-13
  6807.99    6.49070E-13    1.22318E-14    2.34976E-13
  6810.74    6.47688E-13    1.22208E-14    2.37408E-13
  6813.49    6.56644E-13    1.22820E-14    2.35369E-13
  6816.24    6.47521E-13    1.22366E-14    2.34607E-13
  6818.99    6.45035E-13    1.22939E-14    2.38681E-13
  6821.74    6.41021E-13    1.24397E-14    2.51177E-13
  6824.49    6.45413E-13    1.26242E-14    2.80839E-13
  6827.24    6.49914E-13    1.32594E-14    3.81323E-13
  6829.99    6.60022E-13    1.43661E-14    5.55983E-13
  6832.74    6.70165E-13    1.51929E-14    7.00419E-13
  6835.49    6.44734E-13    1.54626E-14    7.50016E-13
  6838.24    6.50847E-13    1.48754E-14    6.36197E-13
  6840.99    6.46993E-13    1.40383E-14    4.98141E-13
  6843.74    6.40293E-13    1.33444E-14    3.92338E-13
  6846.49    6.43442E-13    1.30633E-14    3.31475E-13
  6849.24    6.45142E-13    1.28099E-14    2.93026E-13
  6851.99    6.45078E-13    1.26664E-14    2.64493E-13
  6854.74    6.52528E-13    1.26748E-14    2.54249E-13
  6857.49    6.42682E-13    1.26543E-14    2.65745E-13
  6860.24    6.68238E-13    1.29539E-14    2.88762E-13
  6862.99    6.38985E-13    1.39819E-14    4.70094E-13
  6865.74    6.29188E-13    1.51763E-14    6.80941E-13
  6868.49    5.71888E-13    1.50739E-14    7.00955E-13
  6871.24    4.81211E-13    1.34627E-14    5.26904E-13
  6873.99    4.61939E-13    1.21023E-14    3.38484E-13
  6876.74    4.92843E-13    1.16857E-14    2.53269E-13
  6879.49    5.16842E-13    1.17375E-14    2.47734E-13
  6882.24    5.68680E-13    1.22025E-14    2.56754E-13
  6884.99    5.74368E-13    1.25033E-14    2.90737E-13
  6887.74    5.68967E-13    1.25544E-14    3.04605E-13
  6890.49    5.84672E-13    1.26763E-14    3.04700E-13
  6893.24    5.63283E-13    1.27672E-14    3.25605E-13
  6895.99    5.64799E-13    1.26153E-14    2.97780E-13
  6898.74    5.72540E-13    1.25569E-14    2.67215E-13
  6901.49    5.80059E-13    1.27761E-14    2.93692E-13
  6904.24    5.76536E-13    1.28007E-14    3.19723E-13
  6906.99    5.73932E-13    1.26596E-14    3.01102E-13
  6909.74    5.77262E-13    1.25794E-14    2.82320E-13
  6912.49    5.91472E-13    1.30167E-14    3.23813E-13
  6915.24    6.17719E-13    1.34951E-14    3.64811E-13
  6917.99    6.12463E-13    1.34585E-14    3.67096E-13
  6920.74    6.07871E-13    1.33870E-14    3.53130E-13
  6923.49    6.19782E-13    1.37776E-14    4.23585E-13
  6926.24    6.23393E-13    1.42742E-14    4.89429E-13
  6928.99    6.32106E-13    1.39427E-14    4.38979E-13
  6931.74    6.13346E-13    1.32325E-14    3.32932E-13
  6934.49    6.22712E-13    1.28996E-14    2.54285E-13
  6937.24    6.19093E-13    1.27871E-14    2.66828E-13
  6939.99    6.16615E-13    1.32121E-14    3.34070E-13
  6942.74    6.19302E-13    1.34921E-14    3.73071E-13
  6945.49    6.24720E-13    1.35153E-14    3.76607E-13
  6948.24    6.12731E-13    1.39588E-14    4.30689E-13
